"","Condition","Emotion","Interval","FP1","AF7","AF3","F1","F3","F5","F7","FT7","FC5","FC3","FC1","C1","C3","C5","T7","TP7","CP5","CP3","CP1","P1","P3","P5","P7","P9","PO7","PO3","O1","Iz","Oz","POz","Pz","CPz","FPz","FP2","AF8","AF4","AFz","Fz","F2","F4","F6","F8","FT8","FC6","FC4","FC2","FCz","Cz","C2","C4","C6","T8","TP8","CP6","CP4","CP2","P2","P4","P6","P8","P10","PO8","PO4","O2"
"1","Ekman","Disgust","0-100",-0.178103330449827,-0.0923455712969362,0.0588138090319619,0.162712682282696,0.0419163192031503,0.113436478368856,0.0733837761463614,-0.165625707714084,-0.0277724509293034,0.133543572044866,0.192388659320477,0.259333046372819,-0.0339606569133678,-0.0579022272228954,-0.239422907167076,-0.0354265541688639,-0.075968169493481,0.0749341946076737,0.19648717948718,0.0337138472648493,-0.109419850831899,-0.0558719657375145,-0.205031694085736,-0.306462209970136,0.0447236470926885,-0.0208029271206691,-0.0886863423871235,-0.215833970460469,-0.1588732787171,-0.030638952397702,0.212583577586207,0.178286286847095,-0.243253997009432,-0.144403236497781,-0.0241496070953949,0.103387903318406,0.168869940784178,0.246175568573398,0.201161742750502,0.228719587234293,0.118670927209705,0.0251053304597701,0.152982919703807,-0.0116963862387973,0.138925201149425,0.277296684650191,0.244828855207257,0.252727577378898,0.314118015748943,0.270895732827935,0.0861849435418827,-0.146504612014297,-0.0853416867608221,-0.0113207127268551,0.174449815519428,0.305648194685153,-0.110304014310836,0.159695795691452,-0.00604560209123291,-0.151042923535602,-0.068114780686646,-0.00851734245942355,0.000526901046232991,0.0265815297084873
"2","Ekman","Disgust","100-200",-3.20140939536568,-0.803816785312851,-0.277457160144029,0.105462924099335,0.158177271120537,0.436657953608854,-0.639348824786325,-0.622284624305683,-0.04644581928922,0.033604162996888,0.309191710144928,0.424514294827186,-0.0626325896229156,-0.227698916681346,-0.521471291012839,0.0266721266968326,-0.0177057470253795,0.119001818928592,0.35857117995127,-0.18892920585162,0.121296911524077,-0.220096269501012,0.312171923569208,-0.375092797702766,-0.404367611562463,0.0746761575802838,-0.00939428042038758,-0.176680870048564,-0.151871105497414,0.237464402026416,0.452175089886337,0.181328551078551,-2.33507546733296,-0.804280923019432,-0.722799230483961,-0.27525276551927,-0.138445170789164,0.114647075972247,-0.0205922103667425,-0.528786589062689,0.0758730287221922,-0.763546880650995,0.0886306755767118,-0.719855198965497,-0.568459676482546,-0.0353318125987016,0.236633826515811,0.31940321969697,0.469038237702521,-0.103289340175103,-0.365542814931835,-0.14102178147689,-0.406003431458443,-0.620302313445817,0.30422485380117,0.347887251461988,0.136313173052842,0.270680779569893,-0.630396623550661,-0.388328984464039,-0.329690174326466,-0.183696062946063,-0.126033654134437,-0.309365772416277
"3","Ekman","Disgust","200-300",-3.71605316451634,0.342838736492103,0.110126304617018,0.933414484621779,0.614147700631199,1.42722112329917,-0.0956184051614543,0.127606194690266,0.331102141256284,0.24984687370232,0.891293610129564,0.972215443237561,0.522152521795097,0.122143298138869,0.55876805886304,0.469508837914809,0.283474886450776,0.244491762452107,1.03453921998247,0.232387274143302,0.242121456109134,-0.639643293975174,0.059044005767225,-0.875438045219868,-1.17981756433273,0.0212550051007396,-0.989892033542977,-0.924602077363897,-0.694148487683193,0.133418712593135,0.726046143250689,0.700009421185892,-2.74464485608526,-0.102876554001554,-0.0719100652075667,0.20619133451432,-0.0535489769972207,0.809537133984028,0.51767481900053,-0.999400461671934,0.97009761110081,0.456315676100629,1.31058714513557,-0.0511146948527188,0.450319471224072,0.602119519492831,0.772785178016306,0.912601648833538,1.0354074286893,0.432146815658779,0.485740567439097,0.440847375899389,-0.609005260491178,-0.364849985250737,0.754227821034625,0.813280502533286,0.388114084862241,0.385239339148343,-0.961903284234477,-1.61548810406625,-1.10753873727333,-1.67010158828383,-0.548940539386174,-0.886663307067375
"4","Ekman","Disgust","300-400",-4.06852113246059,-0.293245165145589,-0.318114260709624,0.767825442201179,0.144778843254327,1.44797840341695,-0.727086257892988,0.977817234667177,0.553124886425586,0.272772926741895,0.660056480169972,0.737056184541572,0.278848835157077,0.681278630780347,0.195691907567667,0.27755139692614,0.299153073600757,0.206766660763827,1.20611737894243,0.203095360985986,-0.0680255990294207,-1.12396209198359,-0.296881461341334,-1.15121126739533,-0.940664332059912,0.172546940217042,-1.08863291451096,-1.39922330917874,-0.823604281899676,-0.419694815226795,0.782331637768342,0.702862450511139,-3.69148476827807,0.456532543877482,-1.34078076005453,-0.0218087753765553,-0.115055226824458,1.00106407190932,0.758630599004621,-0.855607147258164,0.817248653135376,0.193078045151692,1.0330825003332,-0.374458409008355,0.643197342952666,0.358733191665191,0.548647189002228,0.38430436759357,0.749713153536787,0.112133248508249,-0.0191288983754298,0.15371017352628,-1.00448166666667,-0.6545148820059,0.540583244806421,0.786699313934232,0.625914880724582,0.230980249066765,-1.00015072661217,-1.25394420141474,-0.94079619266055,-1.57916047721564,-0.398050706681351,-0.204145054263566
"5","Ekman","Disgust","400-500",-5.89966485013624,-0.780904298695247,-0.664799896744412,0.800171008200675,0.398294959751189,1.21600399574597,-1.10473095924249,0.672818814756154,0.700495991831261,0.675066590493601,1.07221077995255,1.381039427157,1.00006189161918,1.11219938473662,0.353780098704891,0.837471118504436,1.31195201884654,0.916768744797241,1.5165189516129,1.11447189976908,1.42182561358184,-0.35135737720285,0.76443426785376,-0.786238570654138,0.348986022582408,0.884898337185413,-0.565787303948918,-1.13130685882282,-0.155588286713287,0.200206525127821,1.77366084373143,1.69700835268894,-3.93876112338858,0.615119729977439,-1.81797904559678,0.0631261986096129,-0.188969051987768,1.31725069543087,1.09215640956328,-0.0875920269423559,1.72004251212353,0.270983571915474,1.16747668094364,0.970972101580408,1.47720976440106,0.893911038037682,0.830808792466115,1.02765091643093,1.57071031746032,1.62416529304029,0.921326584295334,1.27971291729894,0.0224688292803663,0.550258443531094,1.60601395085966,1.64469868131214,1.64876585162367,1.20705992159791,-0.056722722538749,-0.26695872790404,0.360505711935661,-0.844125514216576,0.515279524071359,0.0701003350241092
"6","Ekman","Disgust","500-600",-5.57145508103373,-0.106221047201444,-1.44090929983629,0.940525646865889,-0.0904679293406386,1.13854159723508,-1.15585311055935,0.740539599521817,0.571274617737003,0.456296772496596,1.27833207885305,1.66348613571935,1.42941030717543,1.58406225824277,-0.349293387250238,0.94080516274922,1.20853188874903,0.715661779605459,1.68006205769461,1.13004782010383,1.47397693562285,-0.0764260605488419,0.977199974205198,-0.622147781718624,-0.185806024206859,0.691349245822768,-0.734153286163522,-0.613069030192132,0.210089103310059,0.721152863463576,1.98306844495903,1.92341787266988,-4.11580516611437,-0.658417961017207,-0.394263448969331,-0.0323832190087752,-0.729165878754171,1.00835096269555,0.490462388168705,0.0976760472886148,1.48605987441831,-0.117168033361368,1.45503317068106,0.880446761353356,1.48430324798919,0.846504496402878,0.508355795307157,1.18307343482622,1.77950671370728,1.99275144474233,1.23646763474144,1.12148131168418,-0.454644879044926,0.425558445040215,1.56974821332857,1.75342023873311,1.20107534882232,1.26664187250499,-0.389497265987025,-0.244312640467476,-0.00673284771510397,-0.387378977835562,0.904665725733018,0.248964856029171
"7","Ekman","Surprise","0-100",-0.257754036908881,-0.218081272695833,-0.220404134366925,-0.12698796822119,-0.201122630846809,-0.000361645021645018,-0.359721273877954,-0.419943560271146,-0.0619705567141699,-0.041864865642442,-0.0610769087363047,-0.00130990479467769,-0.0301427199770708,-0.00925571725571726,-0.235911128645742,0.0531032496611867,-0.174711767241379,-0.0339734429065744,0.113341340910395,0.0268011732851985,0.0848249913852516,0.0747575717939774,-0.0269967999530268,-0.0135489730755954,0.125809001272265,-0.0699034531045167,0.177702450806069,0.256463907686969,0.0580634213132902,-0.096436117467582,0.130170814674475,-0.0105822576018359,-0.289802027686829,-0.254001992722232,-0.365664237797826,-0.287374877852503,-0.126705463251413,-0.108554400942854,-0.152904786531058,0.0327126548672567,-0.123527695993534,-0.64857044079516,-0.257895858673617,-0.26594930928848,-0.0456134610957643,-0.102023007025489,-0.110669290096909,-0.0807369939707149,-0.048393974892977,-0.010024985607369,-0.0699791810742278,-0.330327066804645,-0.0704882693741754,-0.0502309285467725,0.0692212977407985,0.042980645721229,-0.185494371822803,0.124079666666667,0.037474952659666,0.0289106256931069,0.125680239572561,0.169723354730511,0.000975477316517782,0.316936868246776
"8","Ekman","Surprise","100-200",-1.4735469047619,-1.7238207659809,0.0412950308749854,0.336504809373907,-0.0772857372921059,0.354533554314957,-2.19440802300939,-1.99960868036446,0.173866789387564,0.0280326908541195,0.420302565653075,0.499731717833736,0.442786373835002,0.0715064180751583,-0.713433408138839,-0.0371027372591392,0.591935887377964,0.501689531002986,0.91687975594313,0.504373122301283,0.680931672262473,0.384302252573945,0.822704760174419,0.304931036492946,0.262302901223725,0.393355727143826,0.487365188123573,0.702313987576919,0.301557098765432,0.673179504586049,0.985392060480625,0.530016845351317,-0.422899903083167,-0.508867454068242,-1.52818478395062,0.0193988022202746,0.510576052631579,0.485005000583158,0.371401070763501,0.711712271524771,-0.0633146943321025,-1.51231594506094,-1.55439039838443,-0.336023062354312,-0.203265784143519,-0.0233604054289194,0.177995458987182,0.122156900816937,0.220818487589886,0.266594078567302,0.276405247559275,-0.504164362787985,0.220253885480573,-0.107924272658916,0.502946387149153,0.547285730851742,0.483906487007336,0.583080669034932,0.31275376344086,0.035600050568148,0.343042312380289,0.611299312923987,0.53249584161996,0.336003605697598
"9","Ekman","Surprise","200-300",-1.7071054587156,-2.4106597919538,0.531710960176477,0.929218207258669,0.617136585509292,1.07603973432081,-1.88034987931911,-2.51284717421915,0.632999851878185,0.561644831836591,1.26986678640266,1.30542632683572,1.14836768854347,0.199407195636875,-1.18829815503876,-0.0763431845780206,1.09098375718516,0.52804596386249,1.6160698827384,0.858883579324587,0.839706165616562,0.157310000601359,0.901897005639328,-0.170020980461394,0.238904293645169,0.402526707422502,0.381642928923808,0.986469419629824,0.501416938997821,0.598131372370734,1.50702677081535,1.1405228431543,-0.425394116588701,0.804421178793006,-0.748258127673577,0.942037209369745,1.00819195666254,1.3999666261785,1.29964622560028,1.50403054236669,1.21275221198989,-0.375552811870901,-0.887876968190221,0.880912475967316,1.32400664272366,0.981971605477855,1.20231790816914,0.798583505836352,1.09680083492781,1.35053013296495,1.47260252676786,-0.457235969159046,0.56721341787868,0.624984923149126,1.25699972415796,1.3959550211631,1.41842768351047,1.17090345002084,-0.0818751697667552,-0.295241790414101,0.403112521299724,0.432860990317157,0.871714059960267,0.89250128811299
"10","Ekman","Surprise","300-400",-1.62389428104575,-3.89276127222693,0.161314587440999,0.150387001219725,0.097209104098658,0.572130018465571,-2.74072331766789,-2.88806931871521,0.680469029604276,-0.120084558823529,0.198033598585323,0.752098226703755,0.532019530115583,-0.0234793520825917,-1.7294160128843,-0.908962634058645,0.923410540508852,0.425618125552608,1.42612374970923,0.867444193548387,0.350459804804805,-0.215700098057241,0.708543687343358,-0.204216074193164,0.165220988991157,0.915849118182389,0.242701596990998,0.616276478088122,0.20745165677547,0.00182322389167127,1.41271932266296,0.595127648397829,-0.248550589147287,1.38625409701737,0.014738407329105,0.666181075803302,0.56259897137746,0.876862796222261,0.974813274285053,1.64201982582916,0.934295076884921,0.13794911321922,-1.74198248096489,0.762140244642749,0.646931081481481,0.279520534150613,0.0826649287452207,-0.28806049296997,0.666343208471906,0.81572193287037,0.872704874242151,-0.568203052093321,0.123760855855856,0.275970915438783,0.655964047994395,1.14946816085916,1.36604578355143,1.06516645657002,-0.328885427952329,0.00786283078417095,0.310254626291757,0.150768251471188,0.848526155607786,1.0301398876757
"11","Ekman","Surprise","400-500",-3.86928763329179,-4.32286363817732,-1.27218797175554,-0.840028685840181,-0.664175147077231,-0.435224755211149,-3.23952543630965,-3.83042098918509,0.630461768914327,-0.474062447636146,-0.317917065320104,0.648137303520677,0.565346408952782,0.164865495511563,-1.73498545543585,-0.731070251476472,1.68295872876391,0.801409558780157,1.08302509755232,1.34848421809944,1.26868208205498,0.179057881089091,1.85951210974456,0.237874422442244,0.624238279376499,1.74080730454632,0.937408541549252,1.57377378172893,1.26856245293675,0.519409357809506,1.88463538586421,0.799935741033292,-1.43797523951107,-1.19963775440044,-2.77331479823973,-0.802295082704063,-1.03029499423928,-0.0269768437096964,0.335239981785064,1.72568829793958,0.320499405221193,-0.827513062871708,-2.0544152453148,1.24352443585392,0.487714919379009,-0.250008400774103,-0.830768832721124,-0.642538731373572,0.604021308646309,1.1938813225539,1.2461951960077,-0.141165984139366,0.334702471712955,0.735295921672556,0.933097097887777,1.22526923189423,1.58814903785289,1.38497561683156,0.0553257921303898,0.278832543223648,1.05602534201169,0.59312735626071,1.26495466618375,1.52287213161388
"12","Ekman","Surprise","500-600",-5.65278836298411,-4.6523269525268,-1.77662915169849,-1.14966966871832,-1.0338474827564,-0.448059016897081,-4.67425380844646,-4.13482289703316,0.627033303411131,-0.638252534911961,-0.346909495021337,0.679721551472732,0.890018289426842,0.71747796430732,-0.799448374225036,-0.656210178970917,1.72412956570484,0.571238099472405,1.23253797525108,1.7787991982732,1.15271843572034,0.21555364806867,2.15292944390871,-0.0184447874431749,0.930138610402236,1.72464547372459,1.39139590390164,2.14109788694239,1.45017509615385,1.16648561554269,1.84131309544684,0.750716106690245,-3.22724141424915,-3.27016338367258,-4.91647048780488,-1.88711079437476,-2.13714388106416,-0.594397470318,-0.307795300909308,1.65736029315535,-0.423107418496341,-2.87480456566098,-2.04269964931709,0.449303186135749,0.616100333827893,-0.385623519382627,-1.32902205100956,-0.755782835777467,0.356495912005176,1.19895099003996,1.42854855737508,-0.481791412451617,-0.239056111729082,0.603334342175539,0.510266937909075,1.08544154162989,1.30478420494018,0.861630138474913,-0.0739324723247232,-0.0467318117887738,0.847444945682195,1.0322510145981,1.59472425820996,1.87480247790404
"13","Ekman","Sad","0-100",-0.201411120714491,-0.0805023400936038,-0.0401293266747029,-0.205221264268915,-0.259165255808564,-0.0562883645075626,-0.0744590867025276,-0.0435740831868776,-0.158951763347763,-0.113984196742071,-0.146419605987612,-0.126659077611427,-0.180110299689976,-0.200526643030093,-0.0864358311189843,-0.105498151434487,-0.120865711068768,-0.172163895610093,-0.073583479784057,-0.103403952110439,-0.0484954320987654,-0.203545037011132,-0.419669149868536,-0.169531088142406,-0.126292354501932,-0.0804034950632988,-0.111135193019566,-0.0367512279177527,0.0398820665152309,-0.138240537444934,0.0922922995235635,-0.0431255950327699,-0.109694073882569,-0.011108352098851,0.123406550407774,-0.161475946023543,-0.117706779026217,-0.18454766540317,-0.149876132254176,-0.173664692750558,-0.173061107272413,-0.0679336984017477,-0.272321399393091,-0.231694382673153,-0.414259741602067,-0.187541978315069,-0.298603121410521,-0.12469407183908,-0.154277866620314,-0.2628851532897,-0.215828801220074,-0.275033779427848,-0.265561038175851,-0.128155504798023,-0.125088551428902,0.0263701870187019,0.012430422300426,0.0194955868707956,-0.190471517605836,-0.0845901378424158,-0.121930572808834,-0.116351841861005,0.0342525076076779,-0.013442284168431
"14","Ekman","Sad","100-200",-1.2233372047938,-0.433021116343658,-0.779718887526995,-1.02743894867789,-1.11025744798971,-0.906263937231697,-0.802386356282581,-1.49992976385601,-1.02481879649,-0.972307534764648,-0.732637150083348,-0.496069597859855,-0.725042464768479,-0.829543292753623,-0.415709570219361,0.0130683638583639,-0.426281054403995,-0.475038149189063,0.103815254773407,0.47548986861584,0.505252260034904,-0.0602720599516138,-0.0762919925174994,-0.720712845344035,-0.160108610129564,0.952885705045278,-0.00888149571122232,-0.477612444134889,0.245909901873327,0.720079176351392,0.7236066948373,-0.114270643021915,-1.2942802661015,-0.838044277019441,-0.411022411105115,-0.736733012427796,-0.832642804158636,-0.693226628385824,-0.682976348295059,-0.710775821638479,-0.801893229166667,-0.388520034145767,-0.854233673779561,-0.596274408395837,-1.24622453687723,-0.925323729993041,-1.05269981266932,-0.490221878955241,-0.417788252697529,-0.832023073142527,-0.637811114000116,-0.866654746945899,-0.945601884288747,-0.213210038598917,0.0416919117220579,0.157119660869565,1.01042182983021,0.694763805792972,-0.197247680129427,-0.52931909759279,-1.43641585521359,-0.0393913536913537,0.924663480260407,-0.346422028829475
"15","Ekman","Sad","200-300",-3.83254080480589,-2.04215505766686,-3.36106513473931,-3.44484303753676,-3.56244919962335,-2.56665572539318,-2.79340016779547,-2.65866790054908,-2.59504453143326,-3.06517256639757,-2.63632321717522,-2.22563612022802,-2.13642762438884,-2.35571865763547,-0.617124736006836,0.315965803840361,-0.698378298975076,-1.29497832658332,-0.87934395433316,0.281412620817844,0.639845120943953,0.496316343012704,1.93406568335505,1.06560431693018,1.73559583107742,1.041436944865,1.07167554432816,0.795730709547501,0.831883139713566,0.773792707004435,0.120383148372926,-1.48912860874108,-3.28086907175329,-2.4448660264618,-1.3211071579602,-2.71216588276588,-3.24091808971656,-3.10278316617672,-3.03886984992785,-2.721210498948,-2.15735590572512,-1.32283862264496,-0.494010700581755,-2.26181931710495,-2.59235678776291,-3.01242685974372,-3.13697625748158,-2.12902775286067,-2.28430057762997,-2.29248569556099,-1.90681120784723,-1.03454889187575,-1.01210780173705,-0.985141430570129,-1.14593142832137,-1.40622553599442,0.125335219702793,0.251557220914086,-0.0603188865147198,0.160138102564103,-0.0574152580492424,0.702024310843516,1.0079967675841,0.78438234434285
"16","Ekman","Sad","300-400",-3.86620616731518,-1.30393908548708,-3.18763619482496,-3.1687659550694,-3.27765675155018,-1.93512435347396,-1.94321985085898,-0.791530146442165,-2.20281256569235,-3.0498919625947,-2.55227477176966,-2.19860061868247,-2.10384566952065,-2.14462072672353,-0.127534097457096,0.0949955628331086,-0.639321157932011,-1.38100774509804,-0.986091170652237,0.416665625197248,0.511270424451297,-0.135164112411607,1.21743072025846,0.170115447743181,0.790685059360731,1.07481044083527,0.814007104573969,-0.47539773054755,0.262549561068702,1.07783109004152,0.118457714219277,-1.52547306591931,-3.43163374595315,-2.07732388653575,-1.64009162379633,-2.61004101830323,-3.08647316531653,-2.76960043324029,-2.6730373058803,-1.921269863519,-2.44671701642336,-2.30452030239635,-0.821895272467161,-2.70500681654027,-2.59880743791995,-3.12514744379879,-3.14432258420441,-2.35201257517927,-2.32032516839454,-2.54005516543471,-2.70135624412318,-0.747506568036185,-1.55539022010853,-1.0659256880463,-1.30097938271605,-1.21282443899018,0.798078509373571,0.764690884514914,0.295169326946252,0.145137475792786,-0.907182271122474,0.422883487352645,1.08355037878788,0.989438004788005
"17","Ekman","Sad","400-500",-4.02771883894362,-1.35929409482759,-3.42211462037557,-3.68490876434192,-3.69280628527132,-1.71724809181416,-1.44899083040479,-0.39805150462963,-2.3313611842886,-3.3296102263227,-3.25886473938965,-2.81487613009276,-2.60667890772128,-2.23327080523015,-1.2407490952288,-0.974540219895977,-1.35631905571463,-1.34789006427585,-1.46092597917406,0.296647746808242,0.42567425382263,-0.187270082092753,0.842507082608976,-0.768952176560122,0.346251841910404,1.28232202427822,0.72725560453015,-0.963556441588221,-0.168892776802549,0.816085148514851,-0.0314527846027846,-2.08055054001416,-3.11888097468931,-2.76829830623306,-3.26101254329004,-3.01570461840121,-3.60205522001206,-3.6673660964368,-3.347310552496,-2.01124593488134,-2.18329951017097,-3.28035630595562,-1.97129276127832,-2.77239335923383,-3.25123712836033,-3.93309942261905,-4.10308644067797,-3.05712228461134,-2.84526613836255,-2.35579211043603,-2.80324891596488,-1.20660586013173,-1.77127657078939,-1.02820561531449,-1.63686904677534,-1.63967563875612,0.2868851973466,0.584122337573263,0.159913936073059,0.102574979829951,-1.27538527153558,0.295618860682986,1.06620238272524,0.72544859437751
"18","Ekman","Sad","500-600",-4.06150455116829,-0.340787015183699,-3.05277698922638,-3.58499587203302,-2.96263326358506,-1.48559557784507,0.344450473306884,1.01282793718627,-1.40255531079542,-3.19766763115862,-2.78635176875594,-2.83531053886926,-2.08114485150276,-1.511,-0.772034782897799,-0.772695201217898,-1.09392274000975,-1.80950412460947,-1.74754119810202,0.0358649892186707,-0.0573866709495839,-0.666758957415565,0.547908953814084,-0.126384766087336,0.539177877484888,1.07655611893894,0.415893910197023,-1.30905859128429,-0.867273068411118,0.542459072356215,-0.727067084795322,-2.69664175960347,-3.35310035223547,-4.41782749219487,-3.94083956378392,-3.12611964540386,-3.80454569072421,-4.23976351635164,-4.07779842269401,-2.04509124087591,-2.55790454574659,-4.66303483015515,-2.46964713494155,-3.7126567452947,-3.3307623734158,-4.19027405476661,-4.36535089602555,-3.23483693630461,-3.2634443549339,-2.47927418528448,-3.30675545826563,-1.90347856586885,-2.71614897187197,-1.68092570899375,-2.53892030641162,-2.35349128164277,-0.180998071018556,-0.0488639068365024,-1.21620060281725,-1.28580174948639,-1.92775455545083,-0.279957630597015,0.422731925100588,0.209155892027864
"19","Ekman","Anger","0-100",0.0893902079722704,-0.078344062445185,-0.0832073128665057,-0.112171180495659,-0.10206562445567,-0.0397718925328243,0.363267333799452,-0.0165757979510866,-0.0269382630330382,-0.0749477691421992,-0.100616223908918,-0.00371010240478655,-0.10478002186547,-0.181606340265742,-0.166792812646921,-0.0740288038305972,-0.20006477960242,0.131619191396365,0.0893556333967595,0.0122033484162896,-0.0885354711211125,-0.118737777777778,-0.248669840150447,-0.259745902585411,0.106365586258834,0.168509074573226,0.0416606690244621,-0.00229126030419134,0.0670253009945908,-0.0453663092917479,0.16565780233696,0.0954722413991485,0.000179677550075257,-0.00665326553082986,0.0842705569134078,-0.08549830430534,-0.106303971545418,-0.0994404597502733,-0.0193607085346216,-0.025316713648109,-0.0581346075699524,-0.0562770474200476,0.0134758135444151,0.0250609876114392,0.0340260164010164,0.0202186919684308,-0.0831460956816744,-0.0335713052486188,0.0300823911404882,0.0735588591184097,0.0506746162280702,-0.0325234334089719,-0.0346170583491734,0.0577065762184583,0.12150150332466,0.196399391304348,-0.161167648836506,0.214761759581882,0.199340554018217,0.141669409245571,0.0510131404147173,0.204476391060159,0.112600295373457,0.160255928333041
"20","Ekman","Anger","100-200",1.27021397109002,0.200539705697791,0.207513530027933,0.00464555844907405,0.424855286189393,0.451450017491691,0.900662708561686,-0.0163328120208525,0.260917017851917,-0.321840914382166,-0.290524401473297,-0.101104601968572,-0.0615261163929703,-0.092020412311266,-0.381186540643851,-0.208612390350877,-0.143097449750203,0.106504779024904,-0.167070713664056,-0.249238909146156,-0.311816530149878,-0.000834817453250232,0.444994315432995,-0.507729790900064,0.00628015678015677,0.740337644477409,-0.121136010362694,-0.0312703110492108,-0.334543388799427,0.0416376278485555,-0.124765420910294,-0.0217595205123767,0.760596692808074,0.340271013691901,0.500383444588664,0.206219172910495,0.0586916053062179,-0.219302025462963,0.196319596433328,-0.060524059139785,0.229279458125149,0.348832209874294,0.213881126109692,-0.00692647230490866,-0.3617978175648,-0.146390535122887,-0.311109609739251,-0.138975775361068,-0.0418180524083435,-0.129848808699665,-0.507733551483421,0.0262760191846523,-0.0342813227420857,-0.57211853871005,0.0349236837517434,0.144004282810685,-0.39544253888579,0.151932252922423,-0.15418365497076,0.110240657698057,0.0705853484025466,0.225472473604827,-0.0292324067453224,-0.335797533952823
"21","Ekman","Anger","200-300",2.31025440044004,0.924036125473975,1.10462718911613,0.684085439750692,1.25558897978541,1.5195991123382,1.14088305859051,0.419350446853014,0.387895320855615,-0.275831495854648,0.186396184599339,0.23895603289625,0.385393875137038,-0.300416475400188,-0.298411472825079,-0.553970332962688,-0.120975113319386,0.0734609658359658,0.332755743125653,-0.26702979124825,-0.58158191495584,-0.350776844532279,-1.06670308327253e-05,-1.24967008003766,-0.281703606135113,0.352006097560976,-0.559809395732473,-0.2168637186223,-0.496108847217214,0.12811537882891,0.16235684955443,0.244726509095122,2.0117518767348,2.18926853612167,2.83584318137351,1.34892188135495,0.999538472731506,0.539786075036075,0.960501030598618,0.691866326346223,2.11043201674554,1.57381410740112,1.83022018004501,1.25297953453453,1.07444829919962,0.67867916520826,0.435672382358048,0.366805871702018,0.45534092634776,0.486617750159337,0.57276869365388,0.840927117461473,-0.297776640304628,-0.239047031003678,0.449178201547681,0.674366875580316,-0.467193913231836,0.1665542900195,-0.364686951852515,-0.575315575269801,-0.59007037561177,-0.236313385207204,-0.0157082433081263,-0.505531531123589
"22","Ekman","Anger","300-400",3.99441310656678,1.8235826873385,2.59490792624521,1.60952404209547,1.83387855414398,2.6495828185562,1.9307913619125,1.78675443037975,1.3293701341478,0.288624229918057,0.850159304703476,0.506494794385477,0.683904524517521,0.220378573573574,0.248345941310976,-0.422825505482665,0.0641374176082862,0.432323844519214,1.0566335059388,0.258075974913065,-0.287130184885047,-0.759894646576014,-0.644399594416148,-1.91186510063118,-0.314281968967362,0.482507407407407,-1.04267603693612,-1.1850575725218,-0.973235753390569,0.127874537037037,0.549452410456128,0.648752072387624,3.75726477287518,3.20850903853794,4.33467245346162,2.54335240037838,2.36704785478548,1.63486633391204,2.30654161519911,1.94024883269662,3.17319182478552,2.80725511580471,3.2670625568108,1.91946418088424,1.45484871522867,1.34148429655575,1.04602106243091,0.701193181160678,0.804103114329448,0.710685534864834,0.449160635573028,1.35283729632437,-0.467526049160671,-0.295388513315774,0.473120975752264,1.245931891166,0.193277326788748,0.459012057442197,-0.478390318406163,-0.163929487179487,-1.31915596785843,-0.759166326832151,0.00598698151827101,-0.466680748778829
"23","Ekman","Anger","400-500",2.35983623172353,2.71251390990082,3.00130903354878,1.98171477937267,2.54691834831529,3.64241961092613,3.14755666666667,2.58277201666667,2.36823182664025,0.762447228791462,0.965004957879958,0.589330229184798,0.871311522922888,0.816515925192123,0.596771048768033,0.129777280684692,0.497737152223994,0.567033475026568,0.911236138060799,0.17249179081316,-0.128712552742616,-0.386544206757253,-0.173715902606049,-2.1610390166487,-0.164362148558494,0.135008797887234,-1.18113213762811,-1.60565223061702,-1.19929486452426,-0.266294213906385,0.595527526995928,0.572102378444796,4.65416862988221,2.35218172043011,6.42242731338558,3.46060686804929,3.06043946456316,2.14160654137529,2.80701593660969,3.04492273584906,4.78972541537867,4.34905166459456,4.07660056224107,3.12922114214433,1.89662417572625,1.45638739535432,0.962493921327956,0.527692539737789,1.05637398409894,1.37604508412198,1.21296069153776,2.25892113922433,-0.223765554316168,-0.231437522030314,0.347570976809557,1.10852321397227,-0.109076268252769,0.220252428519062,-0.721216918227557,-0.38206240608565,-1.5513417485444,-1.35011444824688,-0.22959391701195,-0.652463807053301
"24","Ekman","Anger","500-600",0.0801787477740003,2.31030302389014,2.39537636757947,2.22880865651806,2.44651787301587,3.91040213049268,2.75262490902475,2.25583502286845,2.80298839339339,0.980526417445483,1.183720657277,0.909909969200372,1.44656859621172,1.41911358734723,0.489212565041434,0.347762821778919,0.198535661262545,0.388440278513808,1.08550913161306,0.298412474380473,-0.368230660463419,-0.520677755314587,0.0485095462713387,-2.31482345599112,-0.496572871959943,0.00307809204218599,-1.2693797727696,-1.50895100816277,-1.62780741619228,-0.455467468393463,0.724876445427729,0.652076314401266,3.67181442012289,1.68683233496332,4.65546650169554,3.29938936041706,2.65804393099199,1.88920147014701,2.38262754074345,3.12233582949309,4.83793469408025,4.16103686214218,3.37770116663225,2.76655350343896,2.23448736462094,1.51171464601507,0.955721135693215,0.631982193608259,1.19524445322562,1.46844977290155,1.41729439726786,1.85063718463303,-0.221008220870557,-0.722423411004388,-0.0200067041395866,0.818068857109434,-0.311527102330294,-0.547719024524158,-1.05883121663906,-0.848708716328354,-1.95314171296296,-1.38534157509158,-0.622261006571087,-0.990399438655254
"25","Ekman","Fear","0-100",0.145634109195402,0.00472251972131053,0.15032885751994,0.23835908022249,0.148147607461476,0.107131086304373,-0.118531041194585,-0.289966581841582,0.096341113805647,0.121757140804598,0.211614791236522,0.264634823731728,0.0869953854972772,0.104011773012854,-0.244832365364308,-0.144368542517309,0.0501894109195402,0.137961028479188,0.216210664486142,0.276398435619735,0.163799911103464,0.139151853142791,0.0303063202164578,-0.116029170975526,0.0984382106782107,0.0677268576920767,-0.00175981868651075,-0.00877577230128427,0.0742617502630656,0.0735822177206271,0.335714617768595,0.232736290368841,0.00873148786938023,0.169377200577201,0.176197280092593,0.261961772122879,0.236201013416249,0.23636776610403,0.308784090257469,0.395773040863258,0.186799360856797,-0.211220490009789,0.017895470636026,0.138022447564569,0.187687159410314,0.298474973885794,0.183671369580179,0.262311800172265,0.251612484816936,0.278394449225473,0.200667515099223,-0.0101620458340531,0.133418848317832,0.274981400091922,0.338743619656642,0.406142334605598,0.174152322404372,0.314207978446028,0.412498737808376,0.027397345341103,0.227190199621408,0.372075304684341,0.238777451838879,0.285171187726053
"26","Ekman","Fear","100-200",0.150907532168002,-0.142756730298581,0.892794735765228,1.21918823563518,1.11394820373296,0.826987458486279,-0.812001080108011,-0.87114157722394,0.952746537517532,0.677440239507034,0.933378800967519,1.0218756401404,0.724150975146703,1.09492250188701,0.00949045092042934,0.942675107400012,1.40125869476862,1.01250901059037,1.16601742044997,1.37558281639603,1.40848962493488,1.43330138839339,1.30833385800804,0.190265441819773,0.740563112205994,1.71936728109176,0.541352373217831,0.520636585365854,1.3112074962963,1.49750676238036,1.58652641504002,1.17875093876372,0.357381931550935,0.708489867354458,0.330942447679709,0.89915986157157,1.18603320209974,0.870110821759259,1.0233795119545,0.986904203633291,0.464182760258923,-0.827554222620113,-0.755955043061621,0.107722120525337,0.3493856998557,0.87494315008726,0.536026908671852,0.910262005406027,0.935533813263525,0.781287947073439,0.455785131144693,-0.103662387545274,0.128015246376812,0.795522596656217,1.09612738510762,1.32803640833188,1.61217773718069,1.11296982964022,1.17136222744143,0.583774684652061,0.196220601083348,1.24881353856918,1.08341834986474,1.10610168236479
"27","Ekman","Fear","200-300",1.51807137251209,0.439980685597339,1.86403819688452,1.93573889955773,2.28023532937721,1.51442536206078,-1.02687527192492,-0.762540363318438,1.15006131878614,1.3829026065516,1.62546046633941,1.76840891304348,1.34365672356732,1.49280877616747,0.25467519804997,1.46715974421059,1.66989245564729,1.21195882560395,1.88135804187692,1.79629541697281,1.64093898125221,1.05216014754592,1.12647476783969,0.00110424414143203,1.23639430493274,2.17230518039439,0.479459614446071,0.727553780523683,1.60164775079133,1.55089366209881,2.00465689175078,1.89683163891323,2.86746674931655,2.65160009587431,1.41308276070497,2.17915837268964,2.13207760425755,1.93830742260242,2.01517165217391,1.96558933796635,2.06466895211443,-0.00978853244837758,0.201967557983515,1.14771287025448,1.64082854155776,1.77265136144437,1.38731244870442,1.69784165506843,1.67057002457002,1.5929980552653,1.26538524470203,0.247352388211382,0.383986289518447,1.13220118126392,1.36855219121175,1.92512074561404,1.9747570618815,1.29961810940787,0.944314761989659,0.328172780460624,-0.0753230571327182,1.11287878654971,1.19205634935081,1.17328678965225
"28","Ekman","Fear","300-400",0.324413396524487,-0.603329335608189,1.17866511683357,1.05821332287491,1.52383118961353,0.846724991036214,-2.54119254566883,-2.21655074988387,0.463198001655433,0.409387679243065,0.645605460980461,1.06128368019121,0.539585062180381,1.02861852050229,-1.2874167278512,1.12008012401072,1.36295329638102,0.632467429733074,1.33539097064145,1.83909436455261,1.60143724990906,0.84889314638899,0.768557185889075,-0.282100085682208,1.16921659828755,2.4683390347515,0.362148051432411,0.72502600641254,1.46189807942104,1.33774774567538,1.773175374434,1.31574901943566,2.37119666666667,2.55663648932113,0.748395553551146,1.80758551207814,1.53146012576399,1.24422248810767,1.54992568272743,1.97081628027261,2.29100749378109,-0.336361524689031,-0.422603214549359,1.17000562481449,0.89985066830094,0.963541600819432,0.194895771664055,0.530370781141266,0.92117529693991,1.06282424822942,0.569495813502556,-0.313488395450893,0.172408214709371,0.778205639494027,0.821648512532209,1.63392764698993,2.02394773015873,0.975885723431498,1.05617503777576,0.805903643410853,0.360976023706897,1.54511255315379,1.30782286173244,1.91463398236134
"29","Ekman","Fear","400-500",-1.22308835667411,-1.24398339592077,-0.0312118682310469,0.477314484997368,0.419790854526329,-0.0572768129189519,-2.60745406824147,-2.28304671274328,0.733202555615197,0.191730098839962,0.501388601263601,1.43062143272305,1.07497951297754,1.59072023277966,-1.29775189825361,1.11496527114,2.49804318221754,0.78830165349722,1.65642676324261,2.55633031167556,2.78971924946825,1.92153797098777,1.84930430888177,0.210744825317062,1.8474983908457,3.43006563421829,0.65316955975998,1.15558624519693,1.94349931412894,1.98778578250154,2.41914509718596,1.7923241602294,0.870962664570643,1.58979951715289,-0.506770750332005,0.766354897467536,0.257119250577162,0.558430620966335,0.995109567092,1.77240267516316,2.61305334099911,-0.549555931528662,-1.28670828191416,1.75666565258888,0.928862811691367,0.931994453225618,0.00512169497461038,0.616435104655882,1.10427214227214,1.845375853317,1.38265292080966,0.61540802481101,0.734712962962963,1.38001411113065,1.38263005738041,2.23942795047418,2.54225015806778,1.51199638750538,1.37874237591884,1.20211477721376,1.00024163472653,1.77349471041779,1.81713537501515,2.58362676842889
"30","Ekman","Fear","500-600",-2.52880263651365,-1.72185684614782,-1.06440253375254,0.227187136584787,0.00578115161818415,-0.0542952983442674,-3.42107430917245,-3.17435644922947,0.737843268708099,0.0936541236490974,0.432825489159175,1.56103915047552,1.29307011331445,1.56828127627628,-2.03187453403963,0.864715183093105,2.25212767084584,0.339809548885378,1.92194350756372,2.78867775729647,2.28677448563428,1.85433085171569,1.81379059221337,0.134350583669478,1.69959393202426,3.87712795667824,1.015822776446,1.42192960643458,2.81000721168888,2.93816948477608,2.59234979352062,1.66823193493652,-0.846534257322176,0.330909469039352,-2.10895958744683,-0.661876635341809,-0.851044237380134,0.14999431282414,0.123304227886942,1.92708041185017,1.99829780779017,-1.6143565478629,-1.47761703227713,1.57524129330395,0.337545239379232,0.612730765821663,-0.423734505642285,0.461852901953963,0.906869156281084,2.09529338563705,1.48711687136585,0.207006311383561,0.197140277777778,1.07170490747248,1.14188088321596,2.32334337843378,2.52996672130094,1.45552084877687,0.908941142626112,0.66203374800638,0.523188631448872,2.21201242690058,3.05284820344744,2.91580364327927
"31","Ekman","Happy","0-100",-0.451387255749611,-0.331954155806545,-0.257388161671834,-0.268458433804111,-0.328719067084131,-0.22028143755771,-0.0732087616890283,-0.257789328835227,-0.04037673370319,-0.209818049553443,-0.205535851711463,-0.177151280284763,-0.162499196233781,-0.157549570208838,-0.452134520884521,-0.228230695886874,-0.157066128661028,-0.139062959770115,-0.0877482474286043,0.143853662937568,-0.12595927556246,-0.140350287907869,-0.197360553795612,-0.266182732655055,-0.00310716545852031,0.0782433537832311,0.0264935750411668,-0.00993206175414206,0.0633642083187697,0.00786789263244547,0.0744512019783759,-0.048521712907117,-0.450391748860818,-0.268161120764553,-0.0226643117198336,-0.25029902973935,-0.206758254242163,-0.257786791314837,-0.115162301108622,-0.0462255109854509,0.0604755789656974,-0.0943241826121933,0.0291177964617271,0.115932648799165,0.0706190722836096,-0.0310955075744384,-0.212395334481769,-0.135460857060685,0.0195426370061407,0.120154700264642,0.140093029621946,-0.265162269319492,0.236158016695452,0.16477833967266,0.30346469195681,0.116779370872437,0.0341583682262273,0.333526148368645,0.339396853448276,0.106282529239766,0.164997729101989,0.396113991662324,0.362136027261027,0.428361998940491
"32","Ekman","Happy","100-200",-0.632825026795284,-0.223362060181023,0.244959289091227,0.382780714741915,0.19840516834719,0.638580284197012,-0.121594069163232,0.08232681359045,0.812382655755016,0.650315064889513,0.452006697846296,0.439922225109725,0.769215026280829,0.610879256784479,-1.55311754151839,-0.0327382831181253,0.473365294804437,0.48147364049659,0.113149240586741,0.355037977192341,0.461884534959062,0.20471730941704,0.549061477155199,-0.0413453136943612,0.149928467238462,0.228903677839851,0.132616182135548,0.545849611656155,0.339543676701729,0.463080573152338,0.521725796674749,0.491468735532407,-0.237445702040324,-0.0822838788529184,0.0401831657990786,-0.0407441786005356,0.253651121036959,0.192290424728371,0.620813588091922,0.40782973891596,0.600451024686983,-0.444745129389471,0.03021928531958,0.887830934298834,0.533996336357292,0.205185090802578,0.21696501216968,0.377448686868687,0.386249009324009,0.647978811841038,0.742864471915366,-0.678106830794663,0.21699619888151,0.482105980460169,0.941929918940984,0.607544629856136,0.68687493755464,0.939593873809946,0.751219519309299,0.429963729337615,0.212678700624307,1.07781440386744,0.881811061920251,0.607448106128819
"33","Ekman","Happy","200-300",-2.16401967903891,-1.08363395725229,-1.19529676811594,-0.460942776517135,-0.389142304926286,0.243284835822665,-0.557718721335535,0.0336621850319669,0.365091557899756,0.183928842476395,0.0123389882517973,-0.0252434447151642,0.661967041100662,0.656500104055179,-2.09274791704956,-0.895657446874228,0.167646789125212,0.0882325992864245,-0.393182849022679,0.245429914844085,-0.0117345767148551,-0.648812031792436,-0.259593219029966,-0.339717149154158,-0.0581714201358134,-0.346482227939775,-0.347597357016419,0.555092502258356,0.580458062519344,0.387185214115052,0.0586976936466492,0.230803330411919,-1.55427731667275,-1.33462987438233,0.0445521876327447,-1.21788337102105,-1.07098480630944,-0.630291492024683,0.0434686013458638,-0.45679006118987,0.500757110869039,-0.0673351439007494,0.788331143691292,1.21993645419526,0.300543015482055,-0.38997471826809,-0.429020389914981,0.0604974628856414,-0.0360376089372404,0.556920342282659,0.89253853871577,-1.10523342855388,-0.241033996463307,-0.0349737567440769,0.637296063798654,0.224657339181287,0.33142341704431,0.627365567863737,0.156257644155531,-0.242716706247716,-0.0439802954192082,0.40955394136236,0.851302006964809,0.641674317693959
"34","Ekman","Happy","300-400",-1.76348484848485,-1.29745498066071,-1.2701355032726,-0.373817811749546,-0.283951423023242,0.974013319062909,-0.3785205813807,0.647652834073216,1.01665246449457,0.463147570703408,0.241132408236347,0.0773128288319887,1.15480103745384,1.67615562410587,-1.75829870835731,-0.259628122226449,0.880577093683463,0.571660956680831,0.147185461117969,0.72291677503251,0.915941386759158,0.0366014706787275,-0.0217262646281616,-0.523415535035307,0.605605177993528,0.504563267416311,-0.0849308976971044,0.411479740482311,0.0796582241910631,0.988279187659389,0.60735334035334,0.654542307012895,-1.65124179444547,-1.05507039525452,0.406804814233386,-0.856941559772741,-0.752474726175833,-0.0569496025483664,0.444619656611983,0.270213740224829,1.67520179050756,0.91057399369856,1.08677029041877,2.46528239317785,0.897242958370239,-0.102705726846076,-0.349547391969858,0.126081012842966,0.405992465713108,1.15348115114236,1.41189638636499,-1.36302784116118,-0.218527813086375,0.226640622230101,1.09827387275732,0.625500382870943,1.0083525702274,1.07500282357915,0.726980196655027,0.491617631546289,0.386915483342436,0.713112173836389,1.34585744282999,1.01873550174106
"35","Ekman","Happy","400-500",-2.0941215833969,-2.81691940994809,-1.26664407918309,-0.277565686968839,0.0470764989556456,1.46140568277437,0.287804576673728,1.36769216640191,2.1590354375298,1.51706598227207,0.964182341907824,0.883801920803783,2.02890053003534,2.99068486555774,-1.43426903528005,-0.0874107990377739,1.94131826917391,1.17866365621864,1.03236311119052,1.23909336491424,1.38180712414717,0.666945290125763,0.382169395749053,0.213311503556537,1.08924148087729,1.07760887227293,0.0967299652648555,0.797394675925926,0.0958461815090886,1.45776214169483,0.830758541008541,1.19980230119343,-2.66401322801078,-2.19777964951253,-0.196289855848141,-0.885066957329498,-0.758407361455749,0.384426285999179,1.13043064127432,0.993602345151909,2.23816265041558,1.44019679122665,2.36375101180998,3.92570607620079,1.78833879171872,0.563668035958802,0.225820437913126,0.844239925133064,1.16632417079792,2.53777208674499,2.89040711497516,-1.07352342438331,0.637557734705126,0.726321607448,1.81644466088188,1.09781711815392,1.22079193073427,1.4096817302377,1.064189238653,0.938989931729926,0.934253615829641,0.940079977829708,1.5063527767539,0.897478559717493
"36","Ekman","Happy","500-600",-2.55633565005492,-3.72915543090795,-2.25528017399267,-0.822315648445873,-0.429300106676707,1.21557865374063,-1.12931288474132,1.32325454267048,2.62590336498268,1.04831549269736,0.919056198396914,1.24034666368782,2.84282515902741,3.57877294117647,-2.38015471529638,-0.325858346344002,2.18802896332313,1.46247758967086,1.32513527131783,1.43217617762055,1.32858807823752,0.954917373546968,1.407423852528,1.33470307716339,1.39567120058034,1.38568333982726,0.821885895751205,1.20352062062991,0.608150588812561,2.01714565747515,1.31497727272727,1.53485249761564,-3.59089763222025,-3.44733583793362,-1.43833514532949,-1.73133134808979,-1.99896045045045,-0.283474342928661,-0.0665213314159027,1.09398675433581,2.21656888155828,1.13278283780011,2.62696484107412,3.38888383977058,1.62170525830258,0.206528132302714,-0.278850419398665,1.09785196560197,1.22604444542982,3.22543551676564,3.40224697562711,-0.467895295202952,0.757203819769255,1.09998824103656,2.01972030685386,1.36036674639735,1.19166074760342,1.49952050018594,1.31905257477644,1.48443935444423,1.31217653361479,1.16736224079232,1.45381991369813,1.24022176137808
"37","Under","Disgust","0-100",-0.343380348606739,-0.27854620693689,-0.334771602777292,-0.30163365356623,-0.349288678912045,-0.108418140947043,-0.15631447145939,-0.132416336930456,-0.0496872583479789,-0.233410011116962,-0.189609267667947,-0.0280653109908652,-0.187924332690847,-0.0105844572896596,0.154752973005114,0.116455018939394,0.114147491852886,-0.122172052401747,0.0569489172196996,0.0286065376032809,-0.0710252049537764,-0.303165014164306,-0.17347347257232,-0.165714473915335,-0.20938354682108,-0.104522008623787,-0.235199194324194,-0.163718451438954,0.0207868494586098,-0.2975790628707,-0.112901615271659,-0.0362321345437616,-0.284898070420893,-0.232592016317016,-0.280027724218522,-0.227985536348292,-0.319191582256374,-0.325122352188082,-0.271500989119683,-0.199211187009407,-0.198674285210025,-0.159249037788663,-0.182808686904551,-0.310473371038058,-0.101033245690914,-0.189610338963171,-0.239668616835487,-0.00508004539106145,-0.0960580207783061,-0.191127663922462,-0.430208793133649,-0.121065651260504,-0.06828940027894,-0.356500058346461,-0.155287328065555,-0.022559280769682,0.0469422795462861,-0.150362922070335,-0.186880541514148,-0.3212394673848,0.0317872633491589,-0.159689247689248,-0.218638244047619,-0.187340879265092
"38","Under","Disgust","100-200",-1.17534489981785,-0.936440983809171,-0.912496591316828,-0.617048844475887,-0.86164418632571,-0.0673421868479103,-0.832546929422548,-0.73517751278733,-0.109974097284393,-0.268350589301904,-0.345847399150743,0.146212300884956,-0.0482842980587121,0.0379505115393766,0.548808623762985,0.794348101265823,0.0530796778411793,0.114662709832134,0.28772581120944,0.581412235352043,-0.318597244491953,-0.13567865951412,0.150601961151708,-0.116597474656589,-0.180683912182832,0.401434567667989,-0.239434114247064,-0.144239343677546,0.295220113794564,0.339611019435277,-0.119647181818182,0.0904573609146629,-1.09133495993735,-0.582875545851528,-0.688119577996411,-0.324492122941561,-0.790098922247883,-0.505252606467574,0.000982055368632291,0.127938437884379,0.214064568126521,0.300881310813292,0.317013560804899,0.0328491109897445,0.228889315247784,-0.0762944803639847,-0.333557712765957,0.0427261799540392,0.0124161601716124,0.172191985005355,-0.378841558206797,0.444938715718255,0.0194499970359832,-0.257637887977167,0.437995077859316,0.422846421559879,0.295991558806978,0.0168526062598953,0.378856543822348,-0.425073324789454,0.2742845008704,0.27299013138339,0.530078123084467,0.300199279345304
"39","Under","Disgust","200-300",-2.80875667479522,-1.26962892405888,-1.58713674435543,-1.0416619005064,-1.49996146400484,-0.5796897704681,-1.89309353356,-0.815746934976571,-0.24331346855741,-0.533749077490775,-0.569669666726074,0.298937072706736,-0.55354768708698,-0.149232100309745,1.11973690004403,0.878818790880803,0.103503966123934,-0.172870504903741,-0.0555154094248343,0.91704960908414,0.521845363000482,0.374719203572758,0.588766201082169,0.583140714897784,0.572737072610849,0.668648888461785,0.354170337466839,0.814668288872867,0.512945229244114,0.52386000124471,0.146394874155924,-0.0613325563325563,-2.30727484730705,-1.29894704049844,-1.26170787386342,-0.852619379144063,-1.20910226059096,-0.860558225069704,-0.140482052653474,-0.378272665176354,-0.174418335187245,-0.275399116209101,1.10798874516518,0.269958348714163,-0.191015928937067,-0.239085589678357,-0.590414225816113,-0.0304607546048722,-0.35197987625398,-0.0991447901764425,-0.0937770427538895,0.849792828188338,0.185242296662396,-0.235345095910242,0.294689285929134,0.496895645645646,0.319102879481312,0.413931238700829,-0.0334359743170392,0.109109040074557,0.797350187947132,1.37565521674141,0.623576614891519,0.594439619366437
"40","Under","Disgust","300-400",-1.08940206286837,-0.0171202830188679,-0.424612128650554,-0.829877019155708,-0.486207263366828,0.86004509984639,0.782569023897897,1.54178037725788,0.660814071112726,-0.318896851851852,-0.518878671661315,-0.0323265672714209,-0.24046433940706,0.754650614383809,2.23474226738241,1.06712031188314,0.318838474566019,-0.131470260901295,-0.424088279376499,0.513206560945274,0.38946417982695,0.241693808713196,0.974262193198309,1.21441077689611,-0.588512254901961,-0.0107716868253349,0.00417895429753619,0.33749313153416,-0.121319541094602,0.651347779862414,0.00861724519940914,-0.530981308969306,-0.731854130166764,-0.975117326280042,-0.394470625798212,-0.411892973105434,-0.421030874267416,-0.908247629208155,0.0332783807829181,-0.110147987147987,0.385868357262726,0.639458094673777,1.48048760928154,-0.01700878695597,-0.431687245796151,-0.368568915487849,-1.12327030661646,-0.572044142060951,-0.83692532662112,-0.563167420541584,-0.289107308477091,1.46219692297809,0.564555230178223,-0.529080667763358,-0.19993611771157,0.185482073382415,-0.152333492945157,0.210232465116279,-0.46664052709178,0.297344237941716,0.451249643012355,0.69358536438587,0.0160156703066198,-0.0309059638703291
"41","Under","Disgust","400-500",-1.35187101600557,1.64041624521073,-0.136455078628513,0.330546693435542,0.978696556082148,2.40914287994891,2.10453157786464,3.09139439625499,2.32126584249084,0.278488245875202,0.352654364434819,0.289177652684462,0.52452455505279,1.75244256326233,2.69559986198738,1.49626719893546,0.537113836824697,0.574408330268481,0.0815673874856139,0.744495983935743,0.369898427904692,0.537883661004008,1.04068257972702,1.04293664681062,-0.558311926317113,0.0724013612152298,0.434841290809587,0.316557050460675,0.111737743239828,0.527957554002141,0.0970684052094852,-0.49855692233478,-0.470496659919028,0.553924583505438,-0.549497846683893,-0.0984725962450218,-0.00841829821617258,-0.0482707957687222,0.774603016591252,0.392851280072044,1.43156213282248,0.343887067395264,0.801334762949664,-0.238506088280061,-0.0241419362836247,-0.00135358626588466,-0.632553935860058,-0.564330343260376,-0.561113765746124,-0.164180159460288,-0.226683243142377,1.61664243934862,1.08011413183695,-0.699955678066405,-0.468167248026437,0.207302610114193,-0.387407215505661,0.426060394670689,0.155601179391682,0.341145968005224,0.296768620622944,0.72028392249757,-0.258722877284921,0.083766211497693
"42","Under","Disgust","500-600",-4.33932059722549,1.06867560103964,-2.92279970701824,-2.85943953923165,-2.01795242668716,-1.02966472114137,1.0031624213146,1.40638243252866,1.0116486552717,-1.33058430378162,-1.75400579866093,-1.18972805751068,-0.293506847662142,1.15342937438905,1.93628890722784,0.896886421746737,0.0928273930440135,-0.0616359737793298,-1.19757625942685,-0.248328712435559,-0.426812434691745,-0.0749103614763992,0.817221287419292,1.34117150213514,-0.570975750063565,-0.486655881963742,0.139279738315405,-0.0566437587232235,-0.694627921747968,-0.792974476726023,-1.10969450562898,-1.84097575702956,-2.85288286618794,-0.732109179522603,-2.67938785418656,-3.04956833976834,-3.0971968238691,-3.37322253292441,-2.74706322460503,-2.49961146578964,-1.27232860543543,-2.66180848705849,-0.549167210884354,-1.42922722896206,-2.31054648062016,-2.19644198677104,-3.03410100006024,-2.24149475909714,-2.06832336825626,-1.50300533284296,-1.2227376124031,1.07070521933387,0.943079386912949,-1.60680587245184,-1.89705777086763,-1.35985529086206,-1.35717409848779,-0.826693040495007,-0.957720223596278,-0.358078182778658,0.341194449835048,0.0281283828984978,-1.65903561789996,-0.641367266414141
"43","Under","Surprise","0-100",-0.83339107865564,-1.14300586087059,-0.187697832925551,-0.141299214659686,-0.203963152327221,-0.0942887311601823,-0.858933887915937,-0.562265753669889,-0.225607130343378,-0.279926607111578,-0.106222629435718,-0.0583602479050279,-0.167065197107534,-0.093968837535014,-0.23758117289469,-0.160039068036853,-0.222636776787275,-0.16245727018525,0.104667511359664,-0.168766412767501,-0.137382680424391,-0.566968203120365,-0.217832468539393,-0.267535437917693,-0.383715469289771,-0.299720558345289,-0.250666517082511,-0.0383631078224101,-0.0366695522910108,-0.151651571767497,-0.043332071151814,0.0106160989810772,-0.466292313117066,-0.755140445149166,-0.86300779588944,-0.00679937139863804,-0.117463903977571,-0.161061082024433,-0.134443823820329,-0.141661203670168,-0.200782145998241,-0.852854192229039,-0.859833836053939,-0.133446109543959,-0.1291300273558,-0.126751662840662,-0.159520487748094,-0.0403223385689354,-0.0521112480920512,-0.22352019320298,-0.241003899656597,-0.15802384283549,-0.0819068516256616,-0.219250072754787,-0.153620776335789,0.00975248164464023,-0.203014472798482,-0.0146073035349109,-0.314073011165387,-0.075466971818345,-0.16234134335314,-0.156904386886011,-0.0389610005379236,-0.143119664997616
"44","Under","Surprise","100-200",-2.12360419033195,-3.86904679898813,-0.170932560214095,0.332757786082933,-0.236346585844179,-0.218894020130255,-3.66250024978144,-2.69046840055283,-0.59609177797566,-0.306141695282848,0.0170030913266207,0.160843442381373,0.18429864426761,-0.156922468916519,-1.1364494655916,0.171316032188177,0.0628677494199536,0.268968411337382,0.653841285268304,0.4637411176906,-0.0310159211073487,-0.337883018168335,0.0223161941819529,-0.08148627415568,0.269351988262067,0.735844133761572,0.405565176226254,0.503301903062742,0.62777484220018,0.400459659511473,0.291700006007088,0.123253019857404,-0.970050240118212,-0.68911464044873,-3.11480338714783,0.620506572354848,0.244389854558354,0.321445386563034,0.444527035792205,0.4039551175273,0.0836266809472807,-2.92487935531955,-2.60195363927027,0.279296859078103,0.344194200035913,0.264415268855579,-0.0397567726737338,0.0440225344644751,0.295945424013434,0.197493073975833,0.0467290372211373,-0.137420287253142,0.225522048826624,0.228409120617944,0.396873862622658,0.597805174359888,-0.0324603308892649,0.342132168296511,0.00585275223950965,-0.0893929244996046,0.467144613479568,0.353041495749361,0.79337534422618,0.582826069633444
"45","Under","Surprise","200-300",-3.37853950842982,-5.20839594184028,-1.12896187383487,0.69321747089185,-0.0264312886785584,-1.38202321288058,-5.78074475104979,-4.64661613226453,-1.07701217178061,-0.455251680542707,-0.121522746368983,0.405323089750462,0.177089688634875,-0.517631750298686,-1.91480633346298,-0.363187178510192,0.159137864892405,0.067437530105973,0.951252720966392,0.646299688764395,0.195698720292505,-0.0667938852304798,1.04160459248044,0.60846165110745,0.427010224193151,0.95449755940912,0.722324652136436,0.843920929394813,0.644612107482223,0.64199128253371,0.429219649829185,0.0911543815812958,-2.20682146455106,-1.88762927329234,-3.66119549211641,0.397918734749747,0.0462421484653819,0.74835944097532,1.03166559600286,0.770451477187734,0.533658488228005,-3.89182422209065,-3.23938037267887,0.863639241270992,0.587544436305927,0.816202588292211,0.258633142959129,0.199699643175736,0.483866194625999,0.477807408728743,0.885611726850197,-0.515644241417497,0.767891413682361,0.847575069621019,0.716439732948394,1.07942276276276,0.364292596869387,0.930048561822936,-0.137093712394705,0.668852017658397,0.886603211556829,0.842107723211609,1.06452617946346,0.622511160853075
"46","Under","Surprise","300-400",-2.40840136733186,-2.44759872712808,-0.629981533646322,0.358603843580855,-0.0970361661420725,-1.06639670376452,-4.50874100796899,-3.87078575922819,-0.92325695816125,-0.938015283707691,-1.09682753440298,-0.563830695918,-0.491996813769281,-0.37515039322444,-2.23794812229977,-0.376890422337231,-0.0565197265389712,-0.780041697058108,0.218974222141823,-0.0691655753040225,-0.432982617018649,-0.802317111658146,0.523239304812834,0.844558666911495,-0.598656442102622,0.494257672469375,0.430604384653712,0.470423118865867,0.30351949467744,0.359417722716096,0.0477323046779329,-0.957846459041823,0.284180295950156,-1.34896569986493,-1.90432335788828,0.508778143676058,0.72912406221409,0.176264791666667,0.507894702380952,0.650083223539745,0.353580172797154,-3.10480595111583,-2.68752705263158,0.365930378578024,-0.462192359578121,-0.301514757575758,-1.43836221269501,-1.24920751458854,-0.709403376371461,-0.622027110234338,0.552538604372567,-1.31622315320404,0.61900948334257,0.106245340666056,0.11212079844679,0.406000991884581,-0.136499455337691,0.67032274237012,-0.298107593000489,0.353692388201713,0.478346599131693,0.527670435359383,0.581536556530396,0.442626829268293
"47","Under","Surprise","400-500",-3.48171040961135,-1.81702668463612,0.022960495245389,1.27619140121525,1.23600015809777,0.438051421139449,-2.44586213794207,-3.80142507851054,-0.377520908327334,-0.109866591998009,-0.487439568691055,0.290004475280831,-0.058639792634966,-0.0120279038799104,-2.97667455397121,-0.523304505203284,0.340689356661199,0.249541980987427,0.599041354299994,0.766681306306306,0.0911469660419373,0.0804595042375581,0.502174543224224,0.608068721545466,-0.242333748642259,2.01225,1.0712800835047,0.939761381667277,0.726106174264282,0.446600581799785,0.884179176607329,-0.588580506435703,1.72917586508979,-1.03043862264007,-0.777891132424701,1.05135723659543,2.29086902064451,0.895964445638546,0.875379941215284,2.01261065285504,0.413345010615711,-2.63442748942714,-2.14264535494522,0.13940559505988,0.029937777361085,0.24275056172952,-1.35270357378425,-1.1450330941704,-0.513167213612884,-0.674734988522412,0.659435955531388,-1.89431566790292,0.915726031267659,0.226444238606891,0.274756976247176,0.750216413867822,0.216124418085581,0.909215561062397,0.805463827924717,0.932917522775732,0.805065576815902,0.770914201363526,0.646737109862672,0.938879201415214
"48","Under","Surprise","500-600",-6.89906661904762,-3.73367069472088,-2.85670478903812,-1.07805240295749,-0.52565188172043,-1.34187235504259,-5.00217014736461,-4.94131095249617,-0.591718931260027,-0.441811993414387,-1.46101505279035,-0.359417448010578,-0.647484823994253,-0.315625144596651,-4.07783390155551,-0.718127141362626,0.368553291727851,-0.467259369570613,-0.325938119720896,0.577531931611038,-0.29729533790886,-0.1342,0.661895606178609,1.16192051664183,0.48755073313783,2.01086011323702,1.27160269799826,1.53826037050714,0.619478521510547,-0.127125809290339,0.120912689672051,-1.57153506391703,-3.37820715418649,-6.31097317668856,-6.53786220657277,-2.67008643297631,-1.98725519048579,-1.85983984563435,-1.60745950864422,-0.278470078635213,-2.39334805389222,-7.40679134765786,-5.34412082545684,-1.37514599260958,-0.685957839388145,-1.41482873520937,-3.15737782846715,-2.35624923409623,-1.75212172559077,-1.99804646206309,-0.50726574107904,-4.31933744646135,-0.25713443306788,-0.873993661100804,-1.13344306779246,-0.612138047138047,-0.557860300790873,0.0509128637253045,-0.0591006957621759,-0.131200937950938,0.641463459271667,0.11919075056399,-0.248220789407631,0.898150983774115
"49","Under","Sad","0-100",-0.0493171752397559,0.0380771475256769,-0.186216500843661,-0.0909634962187318,-0.0533008352449856,-0.141098833479148,-0.0816682136602452,-0.235663853474591,-0.203117363061798,-0.210271019052613,-0.0543615666434054,0.13016085440279,-0.0656334264757248,-0.0137870386566381,-0.173696406333393,-0.0928507251503361,0.0448104923184358,0.0890124060807269,0.244622635469414,0.220025076950932,0.272419528208704,0.134826517967782,0.101317004000239,-0.0203243195785777,0.304568586265243,0.314616571189879,0.132003185661546,0.0899353460885846,0.228312084063047,0.346045720880682,0.298116223825444,0.171630133008073,-0.119158323158323,-0.0159711297558702,0.0749379119276757,-0.0834632117722329,-0.0802174153702733,-0.127549435521415,-0.10689228174257,-0.170963156944194,-0.122263531760009,-0.165274561250073,-0.00707938186732476,-0.026652096159484,0.0192372545592262,-0.00448928150765607,-0.0764231954865352,0.107397552183266,0.0561534470629617,0.096999622202848,-0.0267094955834496,-0.153623749341759,0.119552654482158,0.161076509872242,0.257871294351074,0.312524868189807,0.275816265981526,0.436535416666667,0.456619159556562,0.212838563146255,0.306186450102429,0.569033683903009,0.328891269559033,0.391605886918622
"50","Under","Sad","100-200",0.170219004993302,0.806010029876227,0.0218096687555954,0.638283544003323,0.421271663046102,0.125557472291741,-0.132734453527097,-0.407035064935065,-0.155188717580973,-0.0895585032785899,0.442466902863891,0.774571584602669,0.551757916814368,0.353795078540285,-0.038537517639119,0.063202734948605,0.270618983718018,0.152414049338147,0.417555378344852,0.0856492528096826,0.0692453984087401,0.364955143651529,0.801422304603028,0.450514449472097,0.839355357784969,-0.0499239609270255,0.244960369760205,1.30248591758962,0.662013100302078,0.842748838346784,0.348109927156703,0.284655390246782,0.319936369745846,1.30691283982366,0.860202367773678,0.568963370290892,0.624760220266954,0.367065574743339,0.379927506533618,0.47352703875969,0.0229460271667268,-0.48420897645421,0.274525427948957,-0.229853888688544,0.172792835167436,0.353671076941415,0.305188190138766,0.549559017941454,0.248070688114388,0.562859924363293,-0.161614166666667,0.350921209925738,0.0658399468556244,-0.0419013527083703,0.594632308242446,0.761178522490319,0.519837598736177,0.381328952205882,0.884649937932257,0.738963936728961,1.30472957268014,1.26759259590183,0.493835930815304,1.0699009422418
"51","Under","Sad","200-300",2.4407523352999,2.52657021590699,2.44311012809056,3.53403149699887,2.98160986493005,2.71200731255969,1.4211358297977,1.11417889207259,1.52803342309994,2.11767938061815,2.94824871065268,3.10694305481639,2.05071744537218,1.97936955220307,0.736421524941205,0.0090494092039801,0.78324910490512,1.11123031674208,1.84943605870021,0.153831692364852,0.287769559500329,-0.601811618411284,-0.674226074157585,-1.039928159349,-1.5543981981982,-0.707714010406629,-1.33826391961652,-0.635476104598738,-0.594735062745833,0.397442300590842,0.932094991207325,1.75360447849846,3.03279545732453,3.98261014357054,3.5470111236448,3.62468798793471,3.52975387735624,3.43644197860963,3.77804280558514,3.690040280649,3.61388383102695,2.31606855160558,2.55515704943258,2.65203082502267,3.07612386742966,3.62152146052473,3.15430349592043,2.88320233451537,2.53835601860132,3.06338039041704,2.21959061430373,1.51078662284706,0.110984731221502,1.19522274059453,2.23575059672992,2.38027387129481,0.951862922131407,1.24389408851749,0.389335852225021,-0.526890260631001,-0.311719518057809,-0.400192365494439,0.122467084254483,-0.517957952922179
"52","Under","Sad","300-400",4.20331578777304,3.45481604747162,2.90937381840796,3.14296176648518,2.99053167099246,3.2599441249227,2.04791230408021,1.41161284415669,1.39942952224654,1.3877193327097,1.96174306303074,1.98523457342157,0.989784115523466,1.54634954592552,0.344868876262626,0.0797726317799847,0.434171271889959,0.455899902551922,0.808801479056798,-1.09541688604739,-0.44039582189692,-0.964004218600192,-0.61223552410495,-0.15250226525166,-1.77973943006146,-1.49912612877896,-2.01836847730416,-1.23186722642554,-1.40549879250079,-0.83528107904169,-0.469056249234913,0.16941198568873,4.31750959760219,4.73718086492119,5.06410844523433,4.22639074542389,4.04574918945372,2.92999189108318,3.22579751002574,3.39287078330475,3.82791001243781,3.18175260566532,2.15854808580858,2.12472872012811,2.03014176036755,2.45418378016901,1.79102401589021,1.3009628008101,1.04192866582567,1.80960168783921,1.22385300735875,0.59491160908808,-0.558798524964513,-0.440498695071619,0.543414852443154,0.897138357975718,-0.633506309249295,-0.32361223155929,-1.19494577678627,-1.2733901728491,-0.729397233078975,-2.01733998030527,-1.87732638369484,-1.69479020979021
"53","Under","Sad","400-500",5.57950317087074,4.37300525605512,4.73408117624667,4.64762452634152,4.57990296378968,5.43843483709273,3.55609697691341,2.77129598467747,3.02224575596004,2.47956606437041,2.84849573189059,2.13012023593466,1.73380423662514,2.2981042125214,1.32759614891708,1.46808767176311,1.48468151724976,0.757156408377603,1.21543639867841,-0.872734571410524,-0.38490770609319,-0.0240879244796701,0.387679920928122,0.944647210808119,-0.988850885426444,-0.386117390170773,-1.37717429544165,-1.04748988017632,-0.913584587191358,-0.332525265957447,-0.422371410162003,0.619885683375406,6.04618146862665,5.68451226993865,5.70787871837643,5.62392228027617,6.0960467989517,4.27032378456533,4.27306440146997,4.34291008520921,4.23922584772873,3.88888488686589,1.7072168451539,2.33365009983776,2.52287627284996,2.98265405802424,2.38058057675997,1.64249628364203,1.43937466014138,1.99764551790435,1.76932296650718,1.00298882212315,0.0858537664783427,-0.259356880733945,0.531550563841397,0.862015922024458,-0.824756057692308,-0.340968297937827,-0.893678018962076,-0.674084314110108,0.20861944131279,-1.77403663207314,-2.02495212268562,-1.62803169305105
"54","Under","Sad","500-600",4.12655614398649,3.68295974416855,3.28404360599459,3.79252832965416,3.5478763883689,4.48372293554884,2.34656891223733,1.710537427888,2.42249996931197,1.56070451251024,2.46801727037905,1.87900260748287,1.14616259574211,1.84997860733113,1.14509361138696,1.15152600335527,1.06809615972604,0.419852629969419,0.580978361383392,-1.2480595396193,-0.625698979591837,-0.326941297366731,0.666902857142857,0.879959284200025,-1.34125179496785,-0.501429565611446,-1.01759956587391,-0.71202678121853,-0.625291739666472,-0.284007283879624,-0.517623360304033,0.342243109583258,5.17662963789129,5.53686469336854,3.29441786666667,4.36416161128284,4.44159900700935,3.16338304571602,3.27153470709271,3.34696034214619,3.51854092810197,2.26362260259847,1.07393696362893,1.4591029040404,1.62012576128587,2.19141855120427,1.66845302891933,1.34095612612613,0.999032163210864,1.23602622165636,1.21736893953431,0.225232712418301,0.17543632923368,-0.873448850045998,-0.102988325059754,0.421119151913366,-1.25950038550501,-0.979031437218208,-1.05837977111237,-0.520230135373749,0.509531318854265,-1.72124115974283,-2.10384773313211,-1.43224896805741
"55","Under","Anger","0-100",0.272567108244727,0.209566338201654,0.1021687321813,0.111853209941214,-0.0843842821782178,0.0794133881214664,0.0984531723816188,0.199988263330354,0.0181956597829891,-0.180906164423469,-0.0386882780686446,-0.0360682281652392,-0.0358827861217837,0.00126270840620264,0.0576388441100961,-0.164684796776869,-0.017989948288885,-0.0936961435395549,0.0450706204805225,-0.0963476069768845,-0.169908374068901,-0.211312046700867,-0.0912722351121423,-0.259564961322082,-0.362061289946349,0.0425987174855491,-0.334878947996895,-0.333181602530311,-0.17352624602333,-0.189983667672643,-0.0165033797684124,-0.0418862235403582,0.269505551680037,0.329566351540616,0.176842976902333,0.105847590782123,0.155693439375401,-0.0213096068853222,0.0446104708689832,-0.0492535399574597,-0.0460209658421673,0.0193992064881265,-0.173508262260128,-0.108097919971796,-0.134277135854342,-0.0960611445073079,-0.110594053645197,-0.0294260778495374,-0.155061732745962,-0.281071395131086,-0.371397985989492,-0.214825478860079,-0.40637037037037,-0.391198769535806,-0.30988919092716,-0.114863276438501,-0.204912848819381,-0.338339769469311,-0.420947769441052,-0.490420678792202,-0.26935180659801,-0.553519064327485,-0.488211077489023,-0.392988872893048
"56","Under","Anger","100-200",1.04856170367674,0.50986851200395,0.17255844773281,-0.0214457259566288,-0.476492443554261,-0.0353057452671939,0.0910341130604288,0.0844691009473618,0.0697497897140111,-0.622353426395939,-0.188129261448445,-0.200354785779398,0.116024415755185,-0.112430809635936,0.16055238631388,-0.430951239977624,-0.292617498648405,-0.291738134305682,0.140069171622515,0.308796039912691,-0.304873505198005,-0.342843798666916,-0.397829745413703,-0.676432502879311,-0.621114562211982,0.731530599329156,-0.144343852180887,-0.463381539476842,0.249468587508411,0.396046284304656,0.194372329448895,-0.103858246807495,0.420900819474572,1.82405404589372,1.23468185481371,0.596636450667145,0.616414522277817,-0.0064450513371538,0.60770689758855,0.555383661355826,0.825140727871251,0.861467994614773,0.561410867938646,0.414016123155402,0.198743608210299,0.144147852871897,-0.234670457258835,-0.0252325213445579,-0.000794007490636685,-0.0755552628391473,-0.482817135473014,0.0830581635128578,-0.725273018438697,-0.553738842776374,-0.0395019077034884,0.268658679927667,0.174780147245494,-0.286362423568649,-0.345305249864694,-1.01330004307427,-0.607609821428571,-0.809158954507262,-0.171606858938806,0.107565222803087
"57","Under","Anger","200-300",1.84213097038437,0.161342321219226,0.745923411270983,0.891827111030171,0.0274026080612803,0.598989707475623,-0.265118809290154,0.39562972275951,0.496459003554431,-0.259991024450634,0.170092856284547,-0.194408369803063,0.252267297865945,0.0890752990213846,0.0105505184623166,-0.24335279969213,-0.117950713125113,-0.218875778673507,-0.221530881999519,0.116168742921857,-0.181686444810142,-0.303489657766077,-0.843040708631738,-0.779800733944954,-1.39860771079882,-0.0541165420739889,-1.02962973940966,-0.866079501051999,-0.834496573849125,-0.34128431372549,0.148495749399372,-0.31820178582094,1.17533996980562,3.21518844401042,4.08863553762383,1.94662616201859,1.82868185091826,1.14910085592865,1.87249787994427,1.9947056710775,2.8799683998762,3.16560612040343,2.97998005808325,2.24370324159021,0.876032630614116,1.33546870224341,0.526352375803448,0.329242133858738,0.642975151515151,0.723641950808828,0.693840046965318,1.20499008489806,0.0889580355506689,-0.0313860878534158,0.384062886785584,0.835110716885007,-0.289147409974966,-0.297980713107474,0.121303308261481,-0.836491287030122,-0.610841470765521,-1.18755411333454,-0.781526227678571,-0.665490937896071
"58","Under","Anger","300-400",1.39698278592577,0.624337317108504,-0.159989432423957,-0.358747960798636,-0.833736801999512,1.22585093727469,0.574779870433447,1.19206248371123,0.592409478845106,-1.33812792506846,-1.42397862941738,-1.51867003397646,-0.564813198701767,-0.0544717237629146,0.317563566634708,0.0226839784737081,-0.297385185185185,-0.743483482387297,-1.33632054992764,-0.605838467838468,-0.419184906813321,-0.341024602573808,-0.233451529485967,-0.0199235920014676,-1.0758749383173,-0.465634030602363,-0.379448959890384,-0.882551060606061,-0.627109636740071,-0.117408702699333,-0.536511739264751,-1.51110247646459,0.983803260200943,1.82896682729241,3.06461032522017,0.254484893603822,0.762479895641498,-0.357876689893395,0.354016826199506,0.56278698971544,1.91101560324092,2.1676415100496,1.60205682807582,0.927364106444697,-1.14469072607868,-0.462522425908952,-1.56543083616425,-1.37889110237627,-1.18550499636628,-0.757690157812312,-0.91132465844517,0.26779087476803,-0.56749546949668,-1.18269642965942,-1.07196281042162,-0.360866588206892,-0.885713478456303,-0.848248572683355,-0.955244719502432,-1.16598372678628,-1.27000555151074,-0.922246472503618,-0.806806619119119,-0.47038681402439
"59","Under","Anger","400-500",2.1502599286033,2.81026444549838,0.759122040604528,0.483225955685415,0.143917977666728,3.21992309368192,2.91889583333333,2.79789102433733,1.75602075368651,-0.845195255813953,-1.03302432850932,-1.12659729549451,-0.324116885452257,0.528526161028253,1.07807007280291,0.470502879769618,-0.0155415519246068,0.334698818053769,-0.806321027238305,-0.549616858599207,-0.398528813454523,0.105998792961057,-0.103031998728948,-0.33949716940496,-0.998809671361502,-0.104408310662003,-0.221776873675022,-0.901453776398272,-0.443058174618141,-0.237502220970971,-0.366156468853667,-1.04784977457169,1.97538365671099,1.77036151210265,2.965734695372,1.41519600667694,1.5592631840796,0.146971987536701,0.850789457867532,1.15001505582137,2.73268134698345,1.70788027686404,1.53265467943494,0.98194309096632,-1.10187817416078,-0.0150538983872923,-1.36853857142857,-1.13411042634274,-1.05217513818794,-0.337323394356836,-0.32727838033261,0.714802257636122,0.207078860863519,-0.709437610917324,-0.939071875759786,-0.350824379544499,-1.00162904050083,-0.931222963374714,-0.717034513491917,-0.775408512407265,-0.552830658205798,-0.680468653461748,-1.00039904297242,-0.203238694105691
"60","Under","Anger","500-600",1.8940827561712,2.86130413260672,-0.559956801726539,-0.423054504588874,-0.548183245903763,1.85880375762345,2.03111075709301,3.71395007531741,2.85139504445688,-0.654220932427331,-0.995400359389039,-1.27118564823265,0.0237411850236278,0.999083532805499,2.00418021544226,1.16215962441315,0.235539802386279,0.315578225658016,-1.56402098900431,-1.1700003797228,-0.806198946716233,-0.148134910038782,0.153699597160944,0.17229159720936,-0.996520809505655,-0.50372985258783,-0.708678742161793,-0.815476627712855,-0.72884781504065,-1.09127325435627,-1.09687373830061,-1.53031237596969,1.11360632911392,0.929793326734307,1.68634829614254,-0.305866135837757,-0.0843196273040308,-1.247485218509,-0.80963838160241,-0.318116961910324,1.66019032192752,-0.539786428466402,0.68318202701776,0.750064417963995,-1.94857895232712,-0.415663740015853,-1.67067951944394,-1.47477348593228,-1.48127535839056,-0.82041191209322,-0.621211484077216,0.499520760414522,0.118907587301587,-1.31093282763663,-1.92786892171165,-1.13644021641118,-1.69033384694402,-1.72405662158869,-1.49154932415675,-1.64354834556457,-0.68968492343934,-1.65190422749392,-2.10498237179487,-0.483521939068787
"61","Under","Fear","0-100",-0.0842981539533264,-0.205794653812445,-0.172969942498693,-0.14721668698833,-0.274235273430631,-0.0807014009998837,-0.12014932915142,-0.187393850092278,-0.179537208355152,-0.305842119043463,-0.182920600359984,-0.151212372634643,-0.169176956167887,-0.23008979283054,-0.07489202717197,0.01688801392084,-0.0697512485481998,-0.0264455128205128,-0.015203939341119,-0.188019815418024,-0.155054327006791,-0.272171231666372,0.0338785667087163,-0.150619001695014,-0.264133420822397,0.0737446328702868,-0.336667619728377,-0.173370786516854,-0.019185065690036,-0.24000145729241,-0.106858820765798,-0.0943909418395212,-0.0392755291928355,0.00575582413732702,0.00627008366976771,-0.0617445721583653,-0.0939210388704898,-0.226782066922273,-0.177204248650531,-0.130010059277888,-0.086974823943662,-0.135359953501889,-0.38393841538733,-0.195119739390738,-0.113130395578825,-0.209088969120582,-0.283380408898182,-0.111676045296167,-0.200033432870777,-0.336573332172095,-0.458831358540977,-0.172952746741155,-0.228644125326371,-0.334790382494631,-0.315531578026592,-0.157211985479244,-0.319396257567419,-0.192316058861164,-0.3868880095089,-0.13872908496732,-0.173319122348155,-0.26333254867771,-0.142404859746293,-0.315988401142041
"62","Under","Fear","100-200",-0.629579100145138,-0.910298346291497,-0.672353687993402,-0.357200283838921,-0.969715952380952,-0.417610963199621,-1.25284282949253,-1.01646310361862,-0.615544248050943,-1.22103498016589,-0.599149911660777,-0.650981180877631,-0.392773319191562,-0.56583155523945,-0.421800455608915,0.302578851721801,-0.348447524811315,-0.0737729879906793,-0.13081778210576,-0.18421937453738,-0.798286172487527,-0.719155982109579,-0.0839859309393996,-0.538072392086331,-0.845208745726111,0.304299157391687,-0.50719907237886,-0.343362533452275,0.0276359912616057,0.107989726451293,-0.176252252252252,-0.324464675033881,-0.564040040760055,-0.194885365259246,-0.747165906603429,-0.233676987497051,-0.234333690731475,-0.543754446407538,-0.172597810046632,-0.233746648301194,-0.0112431266846361,-0.620929798991923,-0.899450520352238,-0.306661137015782,-0.413505401512423,-0.470900897687415,-0.761651180592357,-0.474347649346059,-0.476582218655252,-0.281906808134394,-0.92088373191615,-0.299764199964164,-0.923178973902728,-0.692151842664777,-0.197698186143324,-0.199316999287242,-0.268986262360746,-0.362454525993884,-0.647517169030733,-0.182173993339388,-0.498671061946903,-0.484549548741856,0.271287052291171,-0.107825704870011
"63","Under","Fear","200-300",-1.77987830989484,-1.26571667955659,-0.744466913982386,-0.202483819059539,-1.02877593124925,-0.216877592989986,-2.61739600226287,-1.74595611994313,-0.579410507116374,-0.708106149341142,-0.4880775200661,-0.579455474148201,-0.586656329375628,-0.479540868228058,-0.488314374062969,0.17258230568012,-0.0442822325636895,0.157955233406273,-0.0406935945607443,-0.725827087198516,-0.767320371706965,-0.753965144079527,-0.0673848496383708,-0.130878178287517,-0.808478333333333,0.00784351922587216,-0.42555601016676,-0.79370615699741,-0.811851800468615,-0.595504366949419,-0.541184248817752,-0.400209588798298,-0.390392387455741,0.324095238095238,0.382824180089268,0.254658484299517,-0.0699569431783652,0.0383183775811209,0.658182985127479,0.714522703533026,1.71967726608187,1.18687718802936,0.640822404887881,0.963967642480843,0.172863453815261,0.127957335733573,-0.494767505018302,-0.322088334218446,-0.267430836164253,0.137329198416918,0.0864605877830998,0.498187381433205,0.14847854155301,-0.362586541330946,0.166474031007752,0.0601159601740893,-0.320128870239685,-0.0410935127674258,-0.812197758037225,-0.213966378570553,-0.00843416444048676,-0.820425450573457,-0.122753808202282,-0.652505659100695
"64","Under","Fear","300-400",-0.783953895711697,0.143630988274707,-0.814527762319916,-1.18734114162628,-1.23975828873716,-0.0711130174291939,-1.41515582368082,-0.488761368209256,-0.440255991088632,-1.02835534706892,-1.49858795885795,-1.57891711421411,-1.40453865551204,-0.796337209302326,-0.328049990532096,0.911431812420786,0.0030439134355275,-0.791432522391673,-0.82075990128807,-1.29443367410161,-1.23496366349903,-0.616191637964026,0.38980567658016,1.1148767173475,-0.445572636076537,-0.0532267554012346,0.0489977918765939,-0.448153020011015,-0.430386136462408,-0.397318660860785,-1.00739944677488,-1.46571485160222,1.0352246978597,0.356877317634321,0.166281610378913,-0.210256242714277,-0.554393026113671,-1.5407490786971,-0.682829221393918,-0.458804778995089,1.02576462749473,0.579845441595442,0.123322235394849,0.00946535015542146,-1.7254407979408,-1.34648651165585,-2.42442060541689,-1.94525351156752,-1.84481525817402,-1.05460494046561,-1.05597468805704,-0.333791776027997,-0.398122984488995,-1.21369932168798,-0.975077068345324,-0.848550972321642,-0.711352633269107,-0.166936234881243,-1.435836631849,-0.687409327073553,-0.0195901283673839,-0.52452380952381,-0.087283408127649,-0.257736816195926
"65","Under","Fear","400-500",-0.307501470279353,0.427970399113082,-0.494344371288407,-0.788409378036929,-0.534082767295598,0.54014759472921,-0.846831552060227,0.480007951454279,-0.442125432368469,-0.762618955334072,-0.968273560754897,-1.28259381759192,-1.42389637460431,-0.688957229778096,-0.640459283070329,0.981790377333856,0.0808927185643264,-0.0863508288982688,-0.634372799754676,-0.927594308943089,-0.756277777777778,-0.199357197844496,0.935750320389594,0.742839236303265,-0.146986132123046,0.439079566947108,0.744258804795804,0.0270951725403818,0.296562238068431,0.13746074287544,-0.189461346481617,-1.0432705366264,0.723898934329804,0.104185093921863,-0.277444774042335,0.133043138736696,-0.62255448897173,-1.16151106911447,-0.456650832281714,-0.122618054226475,1.08152503972037,-0.3281475629905,-0.277787986223663,0.372290550246705,-1.49603162377106,-0.909384699453552,-2.29383800345053,-1.92498159728426,-1.40561951102301,-0.528247822931785,-0.649375029954469,-0.123688803368199,0.497172928799549,-0.652587395416515,-0.472103044002411,-0.490158196672073,-0.619132685149532,0.352261918185805,-0.268224278312361,0.0913366563427539,1.22930046244219,0.22646529547385,0.227613227712813,0.664542697674419
"66","Under","Fear","500-600",-2.29191469847268,-0.725620271657585,-2.22249605149645,-3.0023501176762,-2.01637421322432,-1.43232638751075,-1.86178605278507,-0.530911855522045,-0.738289268473821,-2.18196267864944,-2.14479961170848,-2.51862839461668,-2.46464823760959,-0.972590586892533,-0.35761043893258,0.570609656032559,-0.56372903698279,-1.10133357816134,-2.08038304576603,-2.31224755455229,-1.82501943473729,-0.965102680585089,0.379145635765434,0.692275569588905,-0.888344518589132,-0.0657058021806854,0.25418143499438,-0.155292615723733,-0.561113008743788,-1.18434978870534,-1.67821294780869,-2.5363852232438,-1.23579861271676,-1.83734709223262,-3.688971950735,-2.67248454115794,-2.74798915857605,-3.47934688864629,-2.92963063063063,-2.19631905037638,-0.964267728742002,-2.76886861005492,-1.44689914370555,-1.03448065186339,-3.12570824524313,-2.71630948439703,-3.87758228417266,-3.14916720324331,-2.67054200591038,-2.13558525852585,-2.04686667901692,-1.41643319338931,-0.427295707070707,-1.7475153168146,-1.94860522469858,-2.12663433778419,-1.82546250403356,-0.829625305738476,-2.01564844089021,-1.16698246131655,0.918994897012433,-0.800931543255132,-1.26660581608759,0.0765590415174926
"67","Under","Happy","0-100",-0.279395873404441,-0.287515679747722,-0.179810606060606,-0.188149231575271,-0.252538083465772,-0.0609378987415862,0.0654618905994868,0.0393575196307619,0.0731946055174838,-0.236850652390147,-0.0302995633187773,0.0860465258379888,0.0650781077147016,0.0977501755001755,-0.123728821116462,0.0804665310214673,0.313374003607378,0.120037532028884,0.0828553497582853,0.0131217252203308,0.274713785864241,-0.231831112690235,0.0441148333930491,-0.134810929537867,0.0465779160095789,0.313489844683393,-0.033888599952176,-0.0325659984760565,-0.01418884808208,-0.0863034392943823,0.126147234941881,0.151058183510793,-0.208011350373483,0.087249927015823,0.0910727513227513,-0.0717870775696025,-0.203770873390433,-0.200838513474187,-0.121065188289389,-0.108431429086322,-0.0488604185086944,0.122433473389356,-0.0213890362511052,0.0195658811717458,-0.0588671222475323,-0.0664376944297705,-0.133733839972048,0.0988581820297952,0.00182590700951039,-0.147254023792862,-0.20753686824423,-0.163500408353751,0.0853999709386806,-0.0992580203784571,-0.129765900853502,0.0591068977652648,0.0108628997737418,-0.0151685314685315,-0.190678069870009,-0.077118087763111,0.0693858439518241,-0.153084455324357,-0.136552841179268,-0.0724577980014276
"68","Under","Happy","100-200",-0.569991034232929,-0.658822746964427,-0.248954348471356,0.206155008327385,-0.18346113927106,0.163752621688792,0.325519438312485,0.441939889694491,0.873973102785783,0.255722846781505,0.640177027984414,0.755157072853938,0.859244946808511,0.968754362456078,-0.511682114275079,1.31148864884658,1.17200599928367,1.24887643061516,0.522309646017699,1.25316025996427,0.962449833273788,0.761583643353175,0.93746546490739,0.361077890970833,0.906458745577742,1.81700887294695,0.909222201846079,0.465322414613828,0.565041832549162,1.49419822230424,1.18697203700366,1.07178704522672,-0.590213099520384,0.675739543726236,0.536662193414886,0.614708744542138,0.119517867867868,0.350922214353163,0.673634964249837,1.05889296778191,1.20609021627809,1.49019715933493,1.45380227648247,0.936223647501213,1.0331304900396,0.838211275999762,0.519078145265888,1.08749946940219,1.05698749106505,1.2247216796875,0.988486465583913,0.295381785031086,1.09695795528672,1.36937911339962,1.03192596566524,1.35487679866809,1.26698788049605,1.09279598117306,0.771140634244468,0.323616226461237,0.930116447679924,0.631400483264722,1.33264951964003,1.44725951377436
"69","Under","Happy","200-300",-1.83774442811658,-1.74051178702494,-0.296616901752458,0.78464800861141,0.0777265366212735,0.184110128275275,-0.766743034351145,0.216623099014425,1.19844160319188,0.462489056768016,0.789045435585747,1.12570868372398,1.20237236568715,1.55482475797777,-1.1650854218481,1.48402760465848,1.64510711692084,1.63055650839502,1.10518300770747,1.49416744142804,1.07642011390887,1.18498394481029,1.30283698940998,0.951610539215686,1.35002163828359,2.24467779056387,1.17469248999692,1.09319178540982,0.30703149386845,1.21794830188679,1.31861616806518,1.01590127407407,-1.37227899821549,0.0768394131149575,0.515787374787375,1.15108734723221,0.550127248581432,0.796134710106225,1.38586828530772,1.8456655399061,2.3425827241487,2.44163185835082,2.55402142090984,2.33927747235966,2.09108987075443,1.89648159860258,1.18970622835304,1.59278237942884,1.56658336322334,2.26917572496263,2.18006715473608,0.475184747549932,1.50275829034635,2.2492252308984,1.68611603564807,1.70150810455171,1.27789376553834,1.4003619425967,1.83200136239782,1.26671658885777,1.69112742974063,1.21943361787141,1.38615664021652,1.29310423260721
"70","Under","Happy","300-400",-2.45153987176918,-3.07199910714286,-0.464380055652624,-0.17977620795107,-0.620169967307934,0.531747258873815,-0.610575552008513,1.39038396414343,1.67472519130701,-0.223021213850837,0.0927611814345991,0.337880629816956,0.925532671480144,1.87280607871544,-1.13562362401951,1.41571310519152,1.72749849987754,1.42076047008547,0.591964285714286,0.724487489080245,0.756204929961797,1.21760386978276,1.07525939440497,1.24433977216444,0.859607986884434,2.0346702162303,1.07071541588493,1.02522123511629,0.0101219135802469,1.42939114414586,1.09250729340503,0.488946729863471,-2.42078563038371,-1.47174475247525,-0.220646837502542,0.198694299876084,-0.521913754438423,-0.37715296190135,0.277641214076597,1.01909423468091,1.58483595367495,2.07079640503686,2.29897665103556,2.12588271721363,1.32961411054173,0.95527816175579,-0.0670624773960216,0.916639097296654,0.593951825037707,1.77449660599507,1.51732915752256,-0.972671006445848,0.906019124655129,1.45216749084249,0.822280289221048,1.15849759239196,0.997006719393004,1.36412256736527,1.25009909163444,0.748296152602651,0.696369955156951,0.891962467724087,1.09664216874961,0.93184674689733
"71","Under","Happy","400-500",-3.30011446867428,-2.32599112007359,0.0114471268825543,0.834337221405829,0.420441882804995,1.16222044882956,0.558220964533169,2.34198503456144,3.11291225822198,0.661763020833333,1.31064236551349,1.68094655172414,1.90062916892014,2.81146373357776,-2.3728282330045,1.66553607662528,2.74925249923336,2.67558575214149,2.00341048259973,1.65740945104697,1.09908597173363,2.13734882161334,1.55455472054135,1.03755740600555,1.733946587726,3.31172441722639,1.93694983171398,1.53517200716182,0.639138079724032,1.97039245855106,2.12947014971542,1.67381065142442,-2.35996796285161,-1.44321345865686,0.199428226436537,0.738671688459352,0.0481216485846115,0.939758989135002,1.3491724862011,1.87957710489332,2.29773752436647,2.33249244399866,3.09483433654361,2.71641801100778,2.52933357979051,1.98217316730757,0.928548709991481,2.16567576576577,1.87736044379241,2.94089352360044,2.72280276097978,-0.127759541732699,2.30389902017663,2.48289808976261,1.78684167736414,2.11108034468111,1.69910600478314,2.14427656959153,2.3366857328869,1.86490607022416,1.89609757191364,1.74908802268337,1.55379428212378,1.91378857412653
"72","Under","Happy","500-600",-3.83454900072237,-2.82910543984131,-1.5922650553052,-1.04714276278543,-1.02115922444183,-0.0212467903944655,0.928606288196746,3.23321128382268,4.3877945235419,0.62073220080168,0.971763701132627,1.97571062204438,2.36049420604744,3.91651844605925,-3.15635997469422,1.5306357515801,3.57252649253731,2.93551552930884,1.85996309437166,1.28112301663162,1.37070434430317,2.40225746749067,1.71298002373418,1.86148395635612,2.69129218628215,3.49494576877235,2.65706108252335,2.22721753668958,1.99433985776734,2.00140926355092,2.28200445983034,1.18718715220449,-3.21024947257384,-2.66103125481139,-2.14083412736224,-1.31293699515347,-1.15253760223419,-1.07411960091715,-0.399195700110254,-0.310353228898143,0.497128831897415,0.888869602032176,2.77590530772408,1.87484245167919,1.86604325032765,1.0094179562761,0.328664003183933,1.98189323390324,1.64443584778065,2.80387425936107,3.22145143773911,-0.76146192363864,2.1726345349532,2.36266785268414,1.62348589178602,1.72862496940773,1.71980804010222,1.78149766529697,1.84877408742962,1.90996653874638,2.24257687781918,1.58771335976339,1.44906890750968,2.58021004261273
